Temps (s)	Extensiometre (mm)	No image	Deplacement DDS (mm)	Force DDS (N)
42,064	9,525	1,000	-0,000	1,279
43,063	9,525	2,000	-0,001	1,287
44,064	9,525	3,000	-0,001	1,293
45,063	9,525	4,000	-0,000	1,243
46,063	9,525	5,000	-0,001	1,240
47,064	9,525	6,000	-0,001	1,330
48,064	9,527	7,000	0,009	10,947
49,063	9,534	8,000	0,032	32,314
50,064	9,541	9,000	0,051	54,551
51,063	9,547	10,000	0,069	73,924
52,063	9,553	11,000	0,090	94,743
53,064	9,560	12,000	0,115	114,709
54,063	9,566	13,000	0,135	134,727
55,063	9,572	14,000	0,154	154,368
56,064	9,577	15,000	0,173	172,099
57,063	9,582	16,000	0,195	188,249
58,063	9,588	17,000	0,217	205,438
59,063	9,592	18,000	0,240	219,753
60,063	9,595	19,000	0,257	231,362
61,063	9,599	20,000	0,276	244,267
62,062	9,604	21,000	0,300	258,428
63,063	9,609	22,000	0,322	273,594
64,063	9,614	23,000	0,342	288,913
65,062	9,618	24,000	0,359	301,073
66,063	9,622	25,000	0,381	314,758
67,063	9,627	26,000	0,402	327,959
68,062	9,632	27,000	0,425	342,207
69,063	9,636	28,000	0,443	354,601
70,063	9,639	29,000	0,462	364,006
71,062	9,644	30,000	0,483	376,657
72,063	9,649	31,000	0,507	390,315
73,063	9,654	32,000	0,527	402,572
74,062	9,659	33,000	0,547	415,119
75,063	9,664	34,000	0,566	425,445
76,062	9,670	35,000	0,588	437,409
77,062	9,676	36,000	0,610	450,283
78,063	9,681	37,000	0,631	460,569
79,062	9,687	38,000	0,650	470,092
80,062	9,692	39,000	0,669	479,495
81,063	9,698	40,000	0,693	490,096
82,062	9,705	41,000	0,715	499,084
83,062	9,711	42,000	0,735	508,645
84,062	9,717	43,000	0,753	515,501
85,062	9,723	44,000	0,774	522,508
86,062	9,729	45,000	0,798	530,209
87,062	9,736	46,000	0,817	537,563
88,062	9,742	47,000	0,837	542,369
89,062	9,748	48,000	0,857	544,569
90,062	9,753	49,000	0,878	547,142
91,062	9,760	50,000	0,900	548,527
92,062	9,766	51,000	0,922	549,704
93,062	9,773	52,000	0,939	547,058
94,062	9,780	53,000	0,960	543,841
95,061	9,788	54,000	0,983	539,281
96,062	9,796	55,000	1,005	532,168
97,062	9,808	56,000	1,025	525,528
98,061	9,825	57,000	1,044	515,104
99,062	9,841	58,000	1,064	504,587
100,062	9,858	59,000	1,088	496,243
101,061	9,874	60,000	1,110	486,566
102,061	9,889	61,000	1,129	476,589
103,062	9,903	62,000	1,147	470,102
104,061	9,919	63,000	1,168	462,662
105,061	9,942	64,000	1,193	456,938
106,062	9,971	65,000	1,214	451,901
107,061	10,002	66,000	1,232	445,459
108,061	10,033	67,000	1,251	439,833
109,061	10,064	68,000	1,273	436,576
110,061	10,098	69,000	1,295	432,616
111,061	10,131	70,000	1,318	428,319
112,061	10,164	71,000	1,334	422,786
113,061	10,195	72,000	1,356	420,535
114,064	10,223	73,000	1,378	416,886
115,061	10,243	74,000	1,400	414,355
116,061	10,257	75,000	1,420	410,643
117,061	10,268	76,000	1,439	407,367
118,061	10,281	77,000	1,459	403,559
119,061	10,298	78,000	1,481	402,285
120,061	10,318	79,000	1,503	398,867
121,061	10,338	80,000	1,522	397,731
122,061	10,360	81,000	1,542	393,296
123,060	10,380	82,000	1,564	391,876
124,061	10,398	83,000	1,588	389,125
125,061	10,413	84,000	1,608	387,947
126,060	10,426	85,000	1,628	383,848
127,061	10,438	86,000	1,647	381,439
128,061	10,450	87,000	1,669	379,027
129,060	10,464	88,000	1,691	377,033
130,061	10,476	89,000	1,711	376,551
131,060	10,488	90,000	1,730	373,426
132,060	10,500	91,000	1,750	371,584
133,061	10,512	92,000	1,773	371,208
134,061	10,526	93,000	1,795	369,132
135,060	10,540	94,000	1,815	366,849
136,061	10,555	95,000	1,835	364,588
137,060	10,569	96,000	1,854	362,566
138,060	10,583	97,000	1,876	361,677
139,061	10,597	98,000	1,898	360,138
140,060	10,610	99,000	1,919	358,807
141,060	10,621	100,000	1,937	357,022
142,060	10,632	101,000	1,959	354,039
143,060	10,642	102,000	1,982	353,098
144,060	10,651	103,000	2,003	352,492
145,060	10,660	104,000	2,023	350,150
146,060	10,668	105,000	2,042	347,721
147,060	10,676	106,000	2,064	345,056
148,059	10,684	107,000	2,086	345,184
149,060	10,693	108,000	2,108	344,754
150,060	10,700	109,000	2,125	342,608
151,059	10,707	110,000	2,144	339,350
152,060	10,715	111,000	2,168	337,559
153,060	10,723	112,000	2,190	337,453
154,059	10,730	113,000	2,210	336,194
155,060	10,736	114,000	2,228	333,918
156,060	10,742	115,000	2,249	330,779
157,059	10,750	116,000	2,272	330,584
158,060	10,757	117,000	2,293	329,793
159,059	10,769	118,000	2,312	327,914
160,059	10,786	119,000	2,332	325,931
161,060	10,803	120,000	2,354	323,539
162,059	10,820	121,000	2,376	323,245
163,059	10,834	122,000	2,398	322,703
164,060	10,848	123,000	2,417	320,832
165,059	10,862	124,000	2,436	316,149
166,059	10,879	125,000	2,459	315,475
167,060	10,894	126,000	2,480	315,126
168,059	10,905	127,000	2,502	313,019
169,059	10,916	128,000	2,520	310,754
170,060	10,929	129,000	2,542	309,596
171,059	10,948	130,000	2,564	308,551
172,059	10,973	131,000	2,586	307,543
173,059	10,998	132,000	2,607	305,753
174,059	11,024	133,000	2,625	304,569
175,059	11,053	134,000	2,647	302,915
176,059	11,082	135,000	2,670	303,200
177,059	11,111	136,000	2,691	301,121
178,059	11,139	137,000	2,711	300,502
179,059	11,165	138,000	2,730	297,575
180,059	11,191	139,000	2,752	297,376
181,058	11,218	140,000	2,775	296,940
182,059	11,246	141,000	2,796	295,028
183,059	11,273	142,000	2,815	293,275
184,058	11,299	143,000	2,835	292,227
185,058	11,324	144,000	2,857	291,745
186,059	11,349	145,000	2,881	291,042
187,058	11,374	146,000	2,901	290,154
188,058	11,397	147,000	2,920	288,719
189,059	11,419	148,000	2,940	288,390
190,058	11,442	149,000	2,963	287,383
191,058	11,464	150,000	2,986	286,705
192,058	11,485	151,000	3,006	284,411
193,058	11,504	152,000	3,025	283,008
194,058	11,522	153,000	3,046	281,045
195,058	11,539	154,000	3,070	279,146
196,058	11,559	155,000	3,092	277,764
197,058	11,580	156,000	3,111	276,402
198,058	11,603	157,000	3,131	273,435
199,058	11,630	158,000	3,153	272,228
200,058	11,659	159,000	3,177	271,576
201,058	11,691	160,000	3,199	270,701
202,058	11,722	161,000	3,216	266,873
203,058	11,754	162,000	3,238	266,785
204,058	11,786	163,000	3,260	263,484
205,058	11,817	164,000	3,284	261,827
206,057	11,846	165,000	3,303	260,948
